             Institute of Experimental Mineralogy
                 Russian Academy of Sciences
     -------------------------------------------------
           142432, Chernogolovka, Moscow district 
              A.V. Chichagov (095) 524-50-37

                            ***

          ***       X R A Y P O L v 3.16      ***
                  ***********************

EUDIALYTE

1, t-eudialyte, DF

Na(4)(Ca,Ce,Fe)(2)ZrSi(6)O(17)(OH,Cl)(2)


Hexagonal  R 3m  Z = 3

R =0.0273          NR =1640

15 .7 .92

Ref.Str.:
         Rastzvetaeva R.K., Borutzky B.E., Gusev A.I. (1988)
        * Kristallogr., 33, 2, 353-358
        R: {Ca(6)Zr(3)[Si(3)O(9)}(2][Si(9)O(27)](2)}{Na(9)(Na,K,Sr,TR,Mg)(6)]
        [Fe(1.2)(Fe,Mn)(1.8)][Si(1.1)(Nb,Al,Ti,H)(0.9)](OH)(3.1)Cl(1.4)


                    Initial data from file TRANS.DAT

  Lattice parameters (cub. angs.,degr.):

             a =  14.5500   alpha =   90.00
             b =  14.5500   beta  =   90.00
             c =  29.9190   gamma =  120.00

  Unit cell volume (cub. angs.) =  5485.34

  Molar volume ( cub.cm/mol.) =  1101.34

   Co-ordinates, thermal parameters, occupation for atomic positions:

NoP   x/a     y/b     z/c    B(j)   atom  / occupation

  1  0.3294  0.1647  0.1667   0.74   Zr    = 1.00
  2  0.0042  0.5021  0.0009   0.69   Fe    = 0.44, Fe    = 0.00
  3  0.4060  0.3322  0.3332   0.64   Ca    = 1.00
  4  0.6090  0.6039  0.0967   0.83   Si    = 1.00
  5  0.1404  0.0702  0.0809   0.92   Si    = 1.00
  6  0.2664  0.3264  0.2367   0.62   Si    = 1.00
  7  0.2097  0.4194  0.0738   0.67   Si    = 1.00
  8  0.5268  0.2634  0.2502   0.75   Si    = 1.00
  9  0.4587  0.5413  0.2565   1.03   Si    = 1.00
 10  0.3333  0.6667  0.0865   0.40   Si    = 0.60, Si    = 0.00
 11  0.3333  0.6667  0.2467   1.30   Si    = 0.28, Si    = 0.00
 12  0.3333  0.6667  0.0554   1.40   Si    = 0.21, Si    = 0.00
 13  0.0000  0.0000  0.3684   1.00   Ti    = 0.16, Ti    = 0.00
 14  0.3333  0.6667  0.2956   1.40   Nb    = 0.36, Al    = 0.35
 15  0.1838  0.3676  0.3301   0.96   Fe    = 0.26, Mn    = 0.27
 16  0.4648  0.2324  0.0480   1.06   Na    = 0.50, Ce    = 0.50
 17  0.2258  0.1129  0.2797   2.70   Sr    = 0.18, Mg    = 0.36
 18  0.1876  0.0938  0.2895   1.50   Na    = 0.58, Na    = 0.00
 19  0.1083  0.2166  0.1543   3.10   Na    = 0.62, Na    = 0.00
 20  0.5690  0.1380  0.1723   1.70   Na    = 0.60, Na    = 0.00
 21  0.4194  0.5806  0.1606   2.80   Na    = 0.13, Na    = 0.00
 22  0.0805  0.1610  0.1704   1.80   Na    = 0.36, Na    = 0.00
 23  0.4793  0.7247  0.1837   3.10   Na    = 0.23, Na    = 0.00
 24  0.1790  0.5540  0.1620   3.00   Na    = 0.09, Na    = 0.00
 25  0.5523  0.1046  0.1809   1.00   Na    = 0.27, Na    = 0.00
 26  0.2040  0.6020  0.1470   4.60   Na    = 0.19, Na    = 0.00
 27  0.5920  0.1840  0.1570   1.80   Na    = 0.11, Na    = 0.00
 28  0.2140  0.6070  0.2685   2.90   O     = 0.34, O     = 0.00
 29  0.2106  0.6053  0.2498   1.10   O     = 0.67, O     = 0.00
 30  0.4009  0.2987  0.1252   1.90   O     = 1.00
 31  0.6231  0.0355  0.0446   1.20   O     = 1.00
 32  0.0450  0.3001  0.2892   1.30   O     = 1.00
 33  0.1033  0.3858  0.1061   1.80   O     = 1.00
 34  0.5679  0.6108  0.2265   2.10   O     = 1.00
 35  0.2576  0.2284  0.2072   1.70   O     = 1.00
 36  0.4354  0.2177  0.2900   1.80   O     = 1.00
 37  0.1785  0.3570  0.2192   1.40   O     = 1.00
 38  0.1830  0.0915  0.1308   2.00   O     = 1.00
 39  0.1787  0.3574  0.0281   1.60   O     = 1.00
 40  0.6055  0.3945  0.2543   1.40   O     = 1.00
 41  0.2286  0.1143  0.0447   1.50   O     = 1.00
 42  0.4840  0.5160  0.3055   1.30   O     = 1.00
 43  0.0144  0.5072  0.1152   1.50   O     = 1.00
 44  0.0621  0.1242  0.0744   1.80   O     = 1.00
 45  0.2735  0.5470  0.0676   5.30   O     = 1.00
 46  0.4754  0.2377  0.2006   1.70   O     = 1.00
 47  0.3333  0.6667  0.1411   1.30   OH    = 0.66, OH    = 0.00
 48  0.0000  0.0000  0.3340   3.00   OH    = 0.32, OH    = 0.00
 49  0.2688  0.5376  0.3310   1.90   OH    = 0.57, OH    = 0.00
 50  0.3333  0.6667  0.1970   0.90   OH    = 0.27, OH    = 0.00
 51  0.2100  0.6050  0.0090   1.70   OH    = 0.04, OH    = 0.00
 52  0.6667  0.3333  0.0971   3.60   Cl    = 0.73, Cl    = 0.00
 53  0.0000  0.0000  0.2497   3.60   Cl    = 0.64, Cl    = 0.00

  Full unit cell contains        516  positions


   X-ray density (g/cm cub.)   =      2.95

MU (1/cm) =     322.330   Mass attenuation coefficient (cm**2/g) =     109.440


 Selected interatomic distances (cation-anion,anion-anion):

 NoP    Atom              Rad.sph.      C.N.    Distance     NoP N.
                           (angs.)               (angs.)

   1    Zr                   3.2         6
                                                 2.0969      30
                                                 2.0945      35
                                                 2.1347      38
                                                 2.1008      46
                                                 2.0969      30
                                                 2.0945      35
   2    Fe   ,Fe             3.1         6
                                                 2.6045      51
                                                 2.0758      31
                                                 2.0703      32
                                                 2.6288      49
                                                 2.0758      31
                                                 2.0703      32
   3    Ca                   3.4         7
                                                 2.3112      36
                                                 2.4681      42
                                                 2.3944      39
                                                 2.3618      41
                                                 3.3857      44
                                                 2.4161      31
                                                 2.3971      32
   4    Si                   2.6         4
                                                 1.6405      33
                                                 1.6631      43
                                                 1.6052      31
                                                 1.6214      30
   5    Si                   2.6         4
                                                 1.5865      38
                                                 1.5518      41
                                                 1.6877      44
                                                 1.6876      44
   6    Si                   2.6         4
                                                 1.6267      35
                                                 1.6363      37
                                                 1.6055      32
                                                 1.7039      34
   7    Si                   2.6         4
                                                 1.6771      33
                                                 1.5748      39
                                                 1.6185      45
                                                 1.6771      33
   8    Si                   2.6         4
                                                 1.6566      36
                                                 1.6675      40
                                                 1.6192      46
                                                 1.6676      40
   9    Si                   2.6         5
                                                 1.6571      34
                                                 1.5987      42
                                                 1.6941      28
                                                 1.6252      29
                                                 1.6570      34
  10    Si   ,Si             2.6         5
                                                 1.6105      45
                                                 1.6336      47
                                                 1.6105      45
                                                 1.6102      45
                                                 2.5682      48
  11    Si   ,Si             2.6         7
                                                 1.6390      28
                                                 1.5493      29
                                                 1.4870      50
                                                 1.6392      28
                                                 1.6390      28
                                                 1.5495      29
                                                 1.5493      29
  12    Si   ,Si             2.6         8
                                                 1.5515      45
                                                 2.5641      47
                                                 2.0838      51
                                                 1.5515      45
                                                 1.5512      45
                                                 2.0840      51
                                                 2.0838      51
                                                 1.6378      48
  13    Ti   ,Ti             3.1         7
                                                 1.0292      48
                                                 1.7946      45
                                                 1.7388      51
                                                 1.7947      45
                                                 1.7946      45
                                                 1.7389      51
                                                 1.7389      51
  14    Nb   ,Al             3.0        10
                                                 1.7083      28
                                                 2.0662      29
                                                 1.9408      49
                                                 2.9500      50
                                                 1.7085      28
                                                 1.7083      28
                                                 2.0664      29
                                                 2.0662      29
                                                 1.9408      49
                                                 1.9406      49
  15    Fe   ,Mn             3.3         6
                                                 2.1347      32
                                                 2.1423      49
                                                 2.0970      31
                                                 3.0995      51
                                                 2.1347      32
                                                 2.0970      31
  16    Na   ,Ce             3.4         9
                                                 2.8332      30
                                                 2.9779      41
                                                 2.9374      52
                                                 2.5719      31
                                                 2.5922      42
                                                 2.6919      49
                                                 2.6919      49
                                                 2.8332      30
                                                 2.5719      31
  17    Sr   ,Mg             3.6        10
                                                 2.6393      35
                                                 2.6590      36
                                                 3.2764      48
                                                 2.9835      53
                                                 2.5536      32
                                                 2.6618      39
                                                 3.0984      51
                                                 3.0984      51
                                                 2.6393      35
                                                 2.5536      32
  18    Na   ,Na             3.3        10
                                                 2.9902      35
                                                 3.1225      36
                                                 2.7130      48
                                                 2.6469      53
                                                 2.6509      32
                                                 2.6423      39
                                                 2.6131      51
                                                 2.6130      51
                                                 2.9902      35
                                                 2.6509      32
  19    Na   ,Na             3.3         8
                                                 2.8853      33
                                                 2.6231      35
                                                 2.6268      37
                                                 2.6395      38
                                                 2.6590      44
                                                 2.6396      38
                                                 2.8854      33
                                                 2.6230      35
  20    Na   ,Na             3.3         9
                                                 2.5791      46
                                                 3.3347      52
                                                 2.6393      30
                                                 3.0848      34
                                                 2.6201      40
                                                 2.5703      43
                                                 2.5791      46
                                                 2.6392      30
                                                 3.0847      34
  21    Na   ,Na             3.3         9
                                                 2.7928      34
                                                 2.2462      47
                                                 2.4271      50
                                                 3.2961      28
                                                 2.7404      29
                                                 3.0023      33
                                                 2.2950      43
                                                 3.0023      33
                                                 2.7927      34
  22    Na   ,Na             3.3         7
                                                 2.5074      35
                                                 2.8690      37
                                                 2.4817      38
                                                 2.9094      44
                                                 3.1217      53
                                                 2.4816      38
                                                 2.5073      35
  23    Na   ,Na             3.3        11
                                                 2.8609      34
                                                 2.2483      47
                                                 1.8944      50
                                                 2.9659      28
                                                 3.1510      28
                                                 2.5112      29
                                                 2.7333      29
                                                 3.0757      33
                                                 2.3303      37
                                                 3.2213      34
                                                 3.2549      33
  24    Na   ,Na             3.3        10
                                                 3.2580      28
                                                 2.7066      29
                                                 2.7026      33
                                                 3.3353      37
                                                 2.5552      43
                                                 3.1651      45
                                                 2.1070      47
                                                 2.2683      50
                                                 2.6979      34
                                                 3.1567      34
  25    Na   ,Na             3.3         8
                                                 2.7416      46
                                                 2.7485      30
                                                 2.6469      34
                                                 2.5729      40
                                                 2.4723      43
                                                 2.7416      46
                                                 2.7485      30
                                                 2.6469      34
  26    Na   ,Na             3.3         8
                                                 3.0768      29
                                                 2.9884      33
                                                 2.5716      43
                                                 2.8488      45
                                                 1.6392      47
                                                 2.2122      50
                                                 2.8488      45
                                                 2.9884      33
  27    Na   ,Na             3.3         7
                                                 2.5526      46
                                                 2.5985      52
                                                 2.5970      30
                                                 2.9309      40
                                                 2.7953      43
                                                 2.5527      46
                                                 2.5969      30
  28    O    ,O              3.8        14
                                                 0.5611      29
                                                 3.7142      37
                                                 2.4407      49
                                                 2.6148      50
                                                 2.6045      28
                                                 2.6045      28
                                                 2.7003      29
                                                 2.7003      29
                                                 2.8137      34
                                                 3.7141      37
                                                 2.5464      42
                                                 3.6460      49
                                                 2.4407      49
                                                 2.8137      34
  29    O    ,O              3.8        14
                                                 0.5611      28
                                                 3.5243      37
                                                 3.6012      47
                                                 2.9023      49
                                                 2.2107      50
                                                 2.7003      28
                                                 2.7003      28
                                                 2.6787      29
                                                 2.6787      29
                                                 2.5770      34
                                                 3.5243      37
                                                 2.8002      42
                                                 2.9023      49
